File: data_plotting/tga/Ag1_8_9_16.txt
Filename:	D:\Users\Thermal_Users\LeBlanc\Ag1 ink 8_9_16.tg1d

Temperature (°C)	Weight (mg)
86.391	112.2734
103.954	111.7478
107.735	111.3342
108.974	110.9389
109.377	110.5618
109.569	110.1943
109.624	109.8361
109.668	109.4947
109.694	109.1684
109.692	108.8467
109.683	108.5544
109.624	108.2776
109.596	108.0151
109.608	107.7658
109.571	107.5393
109.533	107.3153
109.519	107.1009
109.534	106.8982
109.489	106.7066
109.491	106.5252
109.421	106.3551
109.421	106.1965
109.448	106.0478
109.410	105.9097
109.255	105.7827
109.300	105.6662
109.310	105.5612
109.337	105.4670
109.265	105.3839
109.251	105.3114
109.252	105.2486
110.957	105.1952
114.111	105.1445
117.466	105.0973
120.947	105.0508
124.398	105.0046
127.849	104.9593
131.345	104.9153
134.800	104.8731
138.313	104.8344
141.798	104.7999
145.307	104.7666
148.669	104.7351
152.239	104.7052
155.777	104.6764
159.288	104.6488
162.714	104.6211
166.225	104.5919
169.582	104.5631
172.801	104.5334
175.836	104.5029
178.978	104.4712
182.099	104.4393
185.183	104.4062
188.306	104.3712
191.512	104.3350
194.681	104.2974
197.912	104.2577
201.023	104.2165
204.234	104.1739
207.456	104.1297
210.693	104.0838
213.805	104.0368
217.096	103.9903
220.187	103.9438
223.334	103.8978
226.462	103.8539
229.606	103.8127
232.793	103.7733
235.972	103.7358
239.081	103.7009
242.127	103.6660
245.386	103.6314
248.489	103.5963
251.572	103.5613
254.570	103.5253
257.588	103.4886
260.614	103.4518
263.520	103.4132
266.506	103.3743
269.438	103.3347
272.420	103.2951
275.430	103.2540
278.350	103.2131
281.383	103.1736
284.376	103.1346
287.397	103.0969
290.506	103.0602
293.513	103.0244
296.753	102.9896
299.744	102.9562
302.804	102.9235
305.749	102.8924
308.793	102.8623
311.955	102.8328
315.043	102.8042
318.153	102.7761
321.259	102.7488
324.405	102.7217
327.519	102.6954
330.655	102.6697
334.034	102.6445
337.191	102.6199
340.294	102.5963
343.409	102.5730
346.417	102.5506
349.562	102.5288
352.723	102.5071
355.962	102.4864
359.138	102.4660
362.291	102.4458
365.587	102.4263
368.829	102.4063
372.029	102.3858
375.210	102.3634
378.477	102.3411
381.772	102.3169
384.854	102.2904
388.221	102.2625
391.521	102.2335
394.628	102.2031
397.888	102.1725
401.184	102.1412
404.458	102.1091
407.606	102.0768
411.029	102.0438
414.340	102.0108
417.829	101.9774
420.977	101.9442
424.043	101.9118
427.260	101.8799
430.567	101.8487
433.840	101.8189
437.032	101.7900
440.357	101.7627
443.587	101.7366
446.764	101.7118
450.078	101.6884
453.441	101.6659
456.608	101.6450
459.754	101.6253
462.945	101.6067
466.226	101.5890
469.678	101.5727
472.977	101.5568
476.165	101.5416
479.672	101.5275
482.956	101.5137
486.486	101.5004
489.652	101.4870
493.115	101.4744
496.147	101.4620
499.531	101.4499
503.014	101.4383
506.122	101.4266
509.369	101.4154
512.731	101.4049
515.982	101.3941
519.110	101.3835
522.524	101.3732
525.681	101.3625
528.909	101.3527
532.388	101.3434
535.756	101.3335
539.052	101.3245
542.698	101.3155
545.996	101.3072
549.198	101.2985
552.519	101.2906
556.279	101.2825
559.379	101.2747
562.680	101.2673
565.980	101.2596
569.893	101.2522
573.541	101.2451
576.879	101.2381
580.091	101.2311
583.786	101.2243
587.283	101.2178
590.684	101.2115
593.814	101.2051
597.288	101.1995
600.709	101.1936
603.844	101.1882
607.422	101.1826
610.694	101.1774
614.142	101.1726
617.387	101.1677
620.859	101.1630
624.094	101.1588
626.795	101.1543
630.242	101.1504
633.621	101.1465
636.651	101.1426
640.098	101.1389
643.240	101.1354
646.329	101.1321
649.633	101.1288
652.640	101.1251
655.903	101.1223
659.242	101.1195
662.624	101.1166
665.998	101.1139
669.855	101.1115
673.588	101.1087
677.161	101.1067
681.332	101.1044
684.723	101.1020
688.111	101.0996
691.943	101.0974
695.522	101.0955
698.958	101.0934
702.821	101.0910
706.254	101.0889
709.684	101.0869
713.794	101.0844
717.332	101.0829
721.201	101.0807
724.683	101.0787
727.812	101.0767
731.526	101.0743
734.871	101.0721
738.196	101.0697
741.812	101.0676
745.360	101.0649
748.366	101.0624
752.043	101.0596
755.294	101.0569
759.186	101.0538
761.618	101.0510
765.321	101.0477
768.717	101.0445
772.302	101.0411
775.909	101.0376
778.572	101.0344
781.993	101.0305
785.669	101.0269
789.404	101.0223
791.477	101.0181
795.643	101.0134
799.387	101.0088
801.110	101.0036
800.803	100.9988
800.497	100.9941
801.123	100.9900
800.724	100.9851
800.397	100.9804
800.815	100.9757
800.678	100.9713
800.627	100.9669
800.678	100.9620
800.138	100.9572
800.410	100.9530
800.813	100.9483
800.670	100.9437
800.599	100.9391
800.820	100.9347
800.952	100.9303
800.438	100.9252
800.630	100.9204
800.636	100.9158
800.638	100.9113
800.465	100.9067
800.586	100.9019
800.677	100.8972
800.523	100.8928
800.654	100.8882
800.077	100.8838
800.314	100.8796
800.121	100.8753
800.200	100.8711
800.097	100.8668
800.268	100.8622
800.068	100.8580
800.309	100.8536
800.009	100.8495
800.301	100.8451
800.510	100.8412
800.650	100.8369
800.508	100.8327
800.707	100.8284
800.854	100.8242
800.368	100.8196
800.525	100.8157
800.759	100.8115
800.765	100.8074