File: data_plotting/tga/Ag1_8_31_16_%vtemp.txt
Filename:	D:\Users\Thermal_Users\LeBlanc\Ag1_8_31_16.tg1d

Temperature (°C)	Weight % (%)
26.213	99.9765
27.401	99.9603
27.679	99.9190
27.755	99.8730
27.835	99.8290
23.314	99.7421
70.785	99.3967
98.186	98.9863
105.100	98.4393
107.627	97.9798
108.782	97.5930
109.428	97.2261
109.691	96.8737
109.787	96.5371
109.831	96.2172
109.832	95.9119
109.824	95.6233
109.851	95.3435
109.841	95.0811
109.833	94.8286
109.814	94.5923
109.823	94.3680
109.793	94.1565
109.765	93.9579
109.778	93.7711
109.744	93.5958
109.757	93.4310
109.583	93.2789
109.474	93.1404
109.660	93.0131
109.680	92.8971
109.675	92.7927
109.665	92.6993
109.654	92.6175
109.635	92.5452
109.593	92.4816
109.593	92.4268
109.565	92.3807
109.505	92.3418
109.485	92.3098
109.459	92.2805
109.410	92.2547
109.299	92.2321
109.272	92.2117
109.342	92.1944
109.364	92.1777
109.375	92.1632
109.340	92.1501
109.345	92.1379
109.349	92.1270
109.322	92.1174
109.283	92.1078
109.248	92.0996
109.196	92.0920
109.132	92.0845
109.248	92.0778
109.234	92.0712
109.251	92.0656
109.232	92.0601
109.241	92.0550
109.222	92.0499
109.244	92.0452
109.253	92.0412
112.175	92.0383
134.180	92.0322
161.399	92.0067
187.946	91.9472
203.564	91.8387
207.004	91.7326
208.392	91.6556
209.028	91.5960
209.351	91.5458
209.451	91.5024
209.603	91.4624
209.583	91.4231
209.530	91.3861
209.513	91.3524
209.572	91.3216
209.620	91.2943
209.627	91.2698
209.636	91.2478
209.497	91.2276
209.413	91.2101
209.409	91.1932
209.378	91.1780
209.500	91.1636
209.482	91.1496
209.453	91.1365
209.450	91.1240
209.494	91.1116
209.533	91.0997
209.436	91.0879
209.397	91.0764
209.403	91.0656
209.489	91.0540
209.401	91.0435
209.382	91.0333
209.362	91.0234
209.348	91.0135
209.318	91.0043
209.290	90.9951
209.308	90.9861
209.296	90.9777
209.291	90.9690
209.232	90.9605
209.198	90.9526
209.227	90.9451
209.013	90.9375
208.905	90.9302
208.872	90.9223
208.725	90.9155
208.703	90.9088
208.780	90.9021
209.055	90.8954
209.135	90.8886
209.111	90.8828
209.038	90.8751
209.089	90.8693
209.034	90.8631
209.060	90.8567
209.056	90.8507
209.101	90.8446
209.035	90.8386
209.088	90.8323
209.065	90.8268
208.979	90.8207
208.965	90.8155
208.991	90.8094
208.941	90.8036
208.986	90.7985
209.122	90.7928
209.127	90.7876
208.957	90.7818
209.051	90.7767
209.117	90.7714
209.144	90.7664
209.158	90.7614
209.151	90.7559
209.045	90.7512
208.957	90.7460
208.919	90.7408
208.999	90.7362
209.126	90.7308
209.147	90.7260
209.166	90.7213
209.121	90.7164
209.115	90.7126
209.074	90.7069
209.161	90.7023
209.165	90.6980
209.194	90.6936
209.150	90.6882
209.135	90.6844
209.162	90.6798
209.191	90.6752
209.150	90.6712
209.150	90.6659
209.150	90.6621
209.150	90.6579
208.983	90.6541
209.009	90.6495
209.026	90.6459
209.031	90.6419
209.061	90.6379
209.041	90.6339
209.053	90.6300
209.053	90.6263
209.045	90.6221
209.014	90.6185
209.050	90.6148
209.053	90.6108
209.072	90.6071
209.113	90.6032
209.064	90.5991
209.096	90.5957
209.148	90.5918
209.132	90.5884
209.111	90.5843
209.128	90.5814
211.174	90.5773
230.994	90.5727
249.399	90.5571
253.260	90.5337
254.665	90.5124
255.354	90.4938
255.633	90.4766
255.807	90.4607
255.905	90.4460
256.048	90.4314
256.174	90.4173
256.227	90.4042
256.274	90.3918
256.293	90.3797
256.333	90.3679
256.359	90.3561
256.331	90.3453
256.339	90.3344
256.324	90.3237
256.293	90.3137
256.312	90.3043
256.288	90.2945
256.233	90.2852
256.200	90.2762
256.264	90.2678
256.282	90.2594
256.247	90.2515
256.185	90.2433
256.213	90.2354
256.245	90.2280
256.265	90.2204
256.238	90.2132
256.181	90.2061
256.189	90.1994
256.180	90.1928
256.165	90.1857
256.179	90.1796
256.185	90.1730
256.160	90.1662
256.143	90.1604
256.146	90.1546
256.131	90.1490
256.125	90.1427
256.124	90.1374
256.054	90.1323
256.122	90.1269
256.073	90.1214
256.032	90.1161
256.105	90.1103
256.091	90.1054
256.074	90.1008
256.097	90.0955
256.058	90.0908
256.033	90.0859
256.067	90.0815
256.083	90.0768
256.017	90.0721
256.000	90.0675
256.056	90.0632
256.053	90.0585
255.932	90.0540
255.787	90.0495
255.660	90.0451
255.725	90.0415
255.657	90.0371
255.809	90.0319
255.894	90.0279
255.937	90.0234
255.901	90.0190
255.847	90.0144
255.917	90.0103
255.857	90.0053
255.812	90.0016
255.719	89.9968
255.792	89.9927
255.860	89.9882
255.857	89.9841
255.916	89.9792
255.966	89.9746
255.923	89.9698
255.920	89.9654
255.916	89.9606
255.882	89.9564
255.876	89.9517
255.894	89.9467
255.970	89.9419
255.921	89.9369
255.983	89.9320
256.006	89.9271
256.008	89.9221
255.986	89.9171
255.974	89.9125
255.968	89.9070
255.982	89.9017
255.964	89.8963
255.944	89.8912
255.959	89.8858
256.010	89.8809
256.035	89.8753
255.979	89.8703
255.863	89.8646
255.902	89.8590
255.877	89.8541
255.908	89.8489
255.856	89.8437
255.887	89.8384
255.890	89.8331
255.986	89.8273
255.969	89.8221
255.883	89.8160
255.934	89.8105
256.012	89.8049
256.005	89.7996
256.012	89.7942
255.988	89.7896