File: data_plotting/tga/Ag1_8_31_16_%vtime.txt
Filename:	D:\Users\Thermal_Users\LeBlanc\Ag1_8_31_16.tg1d

Time (min)	Weight % (%)
0.000	99.9765
0.267	99.9603
0.533	99.9190
0.800	99.8730
1.067	99.8290
1.333	99.7421
1.600	99.3967
1.867	98.9863
2.133	98.4393
2.400	97.9798
2.667	97.5930
2.933	97.2261
3.200	96.8737
3.467	96.5371
3.733	96.2172
4.000	95.9119
4.267	95.6233
4.533	95.3435
4.800	95.0811
5.067	94.8286
5.333	94.5923
5.600	94.3680
5.867	94.1565
6.133	93.9579
6.400	93.7711
6.667	93.5958
6.933	93.4310
7.200	93.2789
7.467	93.1404
7.733	93.0131
8.000	92.8971
8.267	92.7927
8.533	92.6993
8.800	92.6175
9.067	92.5452
9.333	92.4816
9.600	92.4268
9.867	92.3807
10.133	92.3418
10.400	92.3098
10.667	92.2805
10.933	92.2547
11.200	92.2321
11.467	92.2117
11.733	92.1944
12.000	92.1777
12.267	92.1632
12.533	92.1501
12.800	92.1379
13.067	92.1270
13.333	92.1174
13.600	92.1078
13.867	92.0996
14.133	92.0920
14.400	92.0845
14.667	92.0778
14.933	92.0712
15.200	92.0656
15.467	92.0601
15.733	92.0550
16.000	92.0499
16.267	92.0452
16.533	92.0412
16.800	92.0383
17.067	92.0322
17.333	92.0067
17.600	91.9472
17.867	91.8387
18.133	91.7326
18.400	91.6556
18.667	91.5960
18.933	91.5458
19.200	91.5024
19.467	91.4624
19.733	91.4231
20.000	91.3861
20.267	91.3524
20.533	91.3216
20.800	91.2943
21.067	91.2698
21.333	91.2478
21.600	91.2276
21.867	91.2101
22.133	91.1932
22.400	91.1780
22.667	91.1636
22.933	91.1496
23.200	91.1365
23.467	91.1240
23.733	91.1116
24.000	91.0997
24.267	91.0879
24.533	91.0764
24.800	91.0656
25.067	91.0540
25.333	91.0435
25.600	91.0333
25.867	91.0234
26.133	91.0135
26.400	91.0043
26.667	90.9951
26.933	90.9861
27.200	90.9777
27.467	90.9690
27.733	90.9605
28.000	90.9526
28.267	90.9451
28.533	90.9375
28.800	90.9302
29.067	90.9223
29.333	90.9155
29.600	90.9088
29.867	90.9021
30.133	90.8954
30.400	90.8886
30.667	90.8828
30.933	90.8751
31.200	90.8693
31.467	90.8631
31.733	90.8567
32.000	90.8507
32.267	90.8446
32.533	90.8386
32.800	90.8323
33.067	90.8268
33.333	90.8207
33.600	90.8155
33.867	90.8094
34.133	90.8036
34.400	90.7985
34.667	90.7928
34.933	90.7876
35.200	90.7818
35.467	90.7767
35.733	90.7714
36.000	90.7664
36.267	90.7614
36.533	90.7559
36.800	90.7512
37.067	90.7460
37.333	90.7408
37.600	90.7362
37.867	90.7308
38.133	90.7260
38.400	90.7213
38.667	90.7164
38.933	90.7126
39.200	90.7069
39.467	90.7023
39.733	90.6980
40.000	90.6936
40.267	90.6882
40.533	90.6844
40.800	90.6798
41.067	90.6752
41.333	90.6712
41.600	90.6659
41.867	90.6621
42.133	90.6579
42.400	90.6541
42.667	90.6495
42.933	90.6459
43.200	90.6419
43.467	90.6379
43.733	90.6339
44.000	90.6300
44.267	90.6263
44.533	90.6221
44.800	90.6185
45.067	90.6148
45.333	90.6108
45.600	90.6071
45.867	90.6032
46.133	90.5991
46.400	90.5957
46.667	90.5918
46.933	90.5884
47.200	90.5843
47.467	90.5814
47.733	90.5773
48.000	90.5727
48.267	90.5571
48.533	90.5337
48.800	90.5124
49.067	90.4938
49.333	90.4766
49.600	90.4607
49.867	90.4460
50.133	90.4314
50.400	90.4173
50.667	90.4042
50.933	90.3918
51.200	90.3797
51.467	90.3679
51.733	90.3561
52.000	90.3453
52.267	90.3344
52.533	90.3237
52.800	90.3137
53.067	90.3043
53.333	90.2945
53.600	90.2852
53.867	90.2762
54.133	90.2678
54.400	90.2594
54.667	90.2515
54.933	90.2433
55.200	90.2354
55.467	90.2280
55.733	90.2204
56.000	90.2132
56.267	90.2061
56.533	90.1994
56.800	90.1928
57.067	90.1857
57.333	90.1796
57.600	90.1730
57.867	90.1662
58.133	90.1604
58.400	90.1546
58.667	90.1490
58.933	90.1427
59.200	90.1374
59.467	90.1323
59.733	90.1269
60.000	90.1214
60.267	90.1161
60.533	90.1103
60.800	90.1054
61.067	90.1008
61.333	90.0955
61.600	90.0908
61.867	90.0859
62.133	90.0815
62.400	90.0768
62.667	90.0721
62.933	90.0675
63.200	90.0632
63.467	90.0585
63.733	90.0540
64.000	90.0495
64.267	90.0451
64.533	90.0415
64.800	90.0371
65.067	90.0319
65.333	90.0279
65.600	90.0234
65.867	90.0190
66.133	90.0144
66.400	90.0103
66.667	90.0053
66.933	90.0016
67.200	89.9968
67.467	89.9927
67.733	89.9882
68.000	89.9841
68.267	89.9792
68.533	89.9746
68.800	89.9698
69.067	89.9654
69.333	89.9606
69.600	89.9564
69.867	89.9517
70.133	89.9467
70.400	89.9419
70.667	89.9369
70.933	89.9320
71.200	89.9271
71.467	89.9221
71.733	89.9171
72.000	89.9125
72.267	89.9070
72.533	89.9017
72.800	89.8963
73.067	89.8912
73.333	89.8858
73.600	89.8809
73.867	89.8753
74.133	89.8703
74.400	89.8646
74.667	89.8590
74.933	89.8541
75.200	89.8489
75.467	89.8437
75.733	89.8384
76.000	89.8331
76.267	89.8273
76.533	89.8221
76.800	89.8160
77.067	89.8105
77.333	89.8049
77.600	89.7996
77.867	89.7942
78.083	89.7896