File: data_plotting/tga/Ag2 8_9_16.txt
Filename:	D:\Users\Thermal_Users\LeBlanc\Ag2 ink 8_9_16.tg1d

Temperature (°C)	Weight (mg)
26.207	74.9123
27.488	74.9134
27.716	74.9110
27.773	74.9097
27.938	74.9099
28.433	74.9099
33.857	74.9317
34.580	75.2002
45.622	75.1828
51.334	75.1600
55.448	75.1389
59.193	75.1178
62.711	75.0943
66.131	75.0686
69.527	75.0397
72.922	75.0086
76.290	74.9732
79.627	74.9367
82.951	74.8960
86.246	74.8532
89.636	74.8080
92.966	74.7610
96.299	74.7104
99.582	74.6580
102.925	74.6028
106.293	74.5459
109.669	74.4865
112.933	74.4246
116.248	74.3606
119.589	74.2936
122.945	74.2234
126.175	74.1498
129.504	74.0725
132.786	73.9924
136.065	73.9086
139.411	73.8221
142.673	73.7332
145.995	73.6422
149.181	73.5496
152.556	73.4561
155.865	73.3612
159.141	73.2663
162.482	73.1722
165.772	73.0783
169.095	72.9857
172.151	72.8953
175.122	72.8081
178.118	72.7237
181.068	72.6429
183.979	72.5657
186.937	72.4927
189.896	72.4218
192.924	72.3547
195.984	72.2898
199.003	72.2269
202.122	72.1653
205.189	72.1044
208.204	72.0433
211.234	71.9828
214.321	71.9282
217.396	71.8696
220.445	71.8109
223.369	71.7522
226.413	71.6930
229.424	71.6344
232.419	71.5754
235.358	71.5167
238.251	71.4584
241.205	71.4002
244.109	71.3422
247.056	71.2834
249.928	71.2288
252.847	71.1746
255.670	71.1204
258.554	71.0728
261.427	71.0229
264.359	70.9745
267.186	70.9277
269.946	70.8832
272.844	70.8402
275.732	70.7990
278.623	70.7596
281.377	70.7217
284.274	70.6858
287.068	70.6521
289.967	70.6214
292.855	70.5913
295.742	70.5644
298.755	70.5403
301.639	70.5165
304.515	70.4944
307.474	70.4735
310.256	70.4543
313.174	70.4352
316.094	70.4176
319.016	70.3999
322.026	70.3834
325.048	70.3670
328.008	70.3503
330.996	70.3341
333.976	70.3180
337.046	70.3016
339.973	70.2852
342.996	70.2682
345.936	70.2508
349.112	70.2337
352.082	70.2158
354.998	70.1977
358.179	70.1790
361.188	70.1599
364.202	70.1399
367.175	70.1196
370.428	70.0980
373.499	70.0755
376.525	70.0520
379.558	70.0269
382.567	70.0022
385.796	69.9762
388.820	69.9498
391.800	69.9232
395.241	69.8964
398.401	69.8703
401.463	69.8443
404.524	69.8190
407.502	69.7953
410.567	69.7723
413.806	69.7509
416.702	69.7305
419.826	69.7108
422.988	69.6927
426.085	69.6754
429.127	69.6600
432.185	69.6453
435.382	69.6318
438.406	69.6194
441.470	69.6082
444.719	69.5975
447.756	69.5879
450.782	69.5789
453.863	69.5703
456.931	69.5625
460.047	69.5544
463.103	69.5469
466.292	69.5398
468.913	69.5327
472.052	69.5256
475.251	69.5187
478.477	69.5124
481.451	69.5062
484.613	69.4994
487.951	69.4930
491.142	69.4868
494.289	69.4807
497.422	69.4748
500.679	69.4686
504.065	69.4628
507.185	69.4573
510.334	69.4507
513.347	69.4451
516.545	69.4393
519.857	69.4332
523.095	69.4265
526.120	69.4197
529.211	69.4124
532.442	69.4047
535.597	69.3963
538.435	69.3879
541.815	69.3791
544.952	69.3693
548.063	69.3602
551.139	69.3505
554.459	69.3406
557.312	69.3308
560.667	69.3214
563.886	69.3120
567.040	69.3027
570.189	69.2933
573.744	69.2841
576.936	69.2757
580.102	69.2674
582.813	69.2595
586.457	69.2521
589.714	69.2450
592.960	69.2379
595.855	69.2306
599.196	69.2242
602.570	69.2173
605.726	69.2110
608.835	69.2049
612.050	69.1992
615.523	69.1928
618.681	69.1871
621.761	69.1816
624.783	69.1761
627.927	69.1705
630.855	69.1656
634.137	69.1600
637.264	69.1555
640.317	69.1512
643.155	69.1465
645.835	69.1419
649.035	69.1374
652.231	69.1335
654.772	69.1293
658.078	69.1251
661.530	69.1209
664.411	69.1171
667.749	69.1134
671.688	69.1095
675.096	69.1057
678.846	69.1021
682.416	69.0976
685.745	69.0949
689.212	69.0903
692.354	69.0866
695.720	69.0824
699.219	69.0788
702.641	69.0748
706.053	69.0714
709.384	69.0678
712.963	69.0642
716.269	69.0599
719.759	69.0566
723.238	69.0530
726.689	69.0496
730.134	69.0457
733.543	69.0416
736.766	69.0379
739.961	69.0344
743.385	69.0303
746.549	69.0264
749.645	69.0226
752.592	69.0189
756.238	69.0147
759.483	69.0107
762.667	69.0065
766.070	69.0024
769.111	68.9981
772.427	68.9938
775.844	68.9888
778.885	68.9843
782.075	68.9796
785.509	68.9747
788.764	68.9692
792.221	68.9638
795.522	68.9587
798.757	68.9530
800.640	68.9476
800.907	68.9420
800.530	68.9367
800.431	68.9315
800.584	68.9258
800.275	68.9209
800.178	68.9159
800.095	68.9106
800.223	68.9052
800.082	68.8996
800.284	68.8952
800.312	68.8898
800.571	68.8853
799.644	68.8802
800.061	68.8747
800.217	68.8693
800.346	68.8641
800.292	68.8589
800.248	68.8537
800.091	68.8486
800.369	68.8433
800.170	68.8379
800.340	68.8327
800.208	68.8276
800.086	68.8221
799.810	68.8172
800.076	68.8118
800.334	68.8066
800.208	68.8011
800.233	68.7955
800.072	68.7905
800.199	68.7855
800.206	68.7800
800.155	68.7746
799.976	68.7688
799.948	68.7637
800.084	68.7586
800.083	68.7534
800.116	68.7475
799.844	68.7425
800.242	68.7371
799.931	68.7318
799.736	68.7264
799.828	68.7211
799.887	68.7158
799.869	68.7099
799.499	68.7048
799.430	68.7012