File: data_plotting/tga/Ag2_8_31_16_%vtemp.txt
Filename:	D:\Users\Thermal_Users\LeBlanc\Ag2_8_31_16.tg1d

Temperature (°C)	Weight % (%)
26.199	99.9922
27.395	99.9993
27.678	99.9949
27.754	100.0024
27.834	99.9906
23.770	100.0195
71.314	99.9871
98.120	99.9167
105.315	99.8028
107.991	99.7067
109.003	99.5948
109.417	99.4925
109.295	99.4077
109.379	99.3208
109.467	99.2363
109.791	99.1951
109.806	99.1301
109.875	99.0142
109.932	98.9374
109.955	98.8518
109.936	98.7655
109.941	98.7137
109.858	98.6626
109.807	98.5875
109.814	98.5275
109.771	98.4591
109.752	98.3957
109.744	98.3474
109.682	98.2825
109.527	98.2368
109.555	98.1729
109.527	98.1303
109.481	98.0812
109.430	98.0486
109.419	97.9889
109.401	97.9401
109.419	97.8962
109.440	97.8501
109.365	97.7955
109.201	97.7609
109.250	97.7233
109.211	97.6680
109.130	97.6390
109.105	97.6058
109.139	97.5596
109.120	97.5309
109.109	97.5001
109.168	97.4604
109.150	97.4320
109.200	97.3920
109.197	97.3724
109.225	97.3399
109.173	97.3189
109.119	97.2717
109.183	97.2644
109.240	97.2230
109.253	97.2036
109.206	97.1657
109.192	97.1508
109.228	97.1077
109.255	97.0881
109.277	97.0644
109.276	97.0398
111.407	97.0315
132.589	97.0085
159.781	96.9299
186.525	96.7982
203.477	96.5550
207.047	96.3057
208.494	96.0907
209.135	95.9265
209.574	95.8021
209.683	95.6721
209.786	95.5759
209.796	95.4892
209.590	95.3932
209.604	95.3334
209.551	95.2502
209.575	95.1939
209.475	95.1234
209.461	95.0697
209.461	95.0160
209.505	94.9612
209.461	94.8988
209.440	94.8544
209.497	94.8182
209.361	94.7735
209.364	94.7298
209.199	94.6841
209.247	94.6472
209.118	94.6135
209.190	94.5756
209.200	94.5435
209.209	94.5070
209.131	94.4813
208.957	94.4479
209.202	94.4129
209.155	94.3853
209.181	94.3627
209.031	94.3355
208.786	94.3119
208.340	94.2880
208.349	94.2587
208.253	94.2389
208.272	94.2152
208.365	94.1940
208.378	94.1739
208.774	94.1567
208.931	94.1353
208.930	94.1146
208.837	94.0960
208.887	94.0777
208.852	94.0622
208.834	94.0429
208.812	94.0286
208.860	94.0122
208.820	93.9985
208.805	93.9777
208.842	93.9604
208.739	93.9503
208.724	93.9350
208.638	93.9210
208.709	93.9043
208.635	93.8958
208.643	93.8857
208.665	93.8806
208.693	93.8629
208.784	93.8508
208.917	93.8390
209.049	93.8298
208.992	93.8215
208.986	93.8111
208.679	93.7978
208.593	93.7862
208.892	93.7758
208.725	93.7749
208.679	93.7584
208.747	93.7562
208.824	93.7475
208.977	93.7355
208.916	93.7341
208.906	93.7183
208.869	93.7182
208.755	93.7060
208.776	93.6908
208.744	93.6888
208.867	93.6826
208.941	93.6756
208.981	93.6642
208.758	93.6568
208.684	93.6542
208.721	93.6499
208.661	93.6426
208.848	93.6341
208.881	93.6339
208.915	93.6254
208.904	93.6208
208.961	93.6119
208.882	93.6079
208.811	93.6008
208.806	93.5923
208.766	93.5883
208.713	93.5824
208.683	93.5750
208.609	93.5725
208.710	93.5695
208.642	93.5614
208.541	93.5557
208.719	93.5490
208.811	93.5459
208.919	93.5431
208.911	93.5399
208.877	93.5397
208.816	93.5299
208.940	93.5220
208.945	93.5210
208.913	93.5137
208.947	93.5126
208.989	93.5061
210.299	93.5046
229.333	93.4972
248.632	93.4839
252.745	93.4668
254.445	93.4485
255.198	93.4332
255.453	93.4187
255.613	93.4044
255.643	93.3913
255.731	93.3785
255.678	93.3663
255.746	93.3541
255.854	93.3424
255.883	93.3318
255.748	93.3222
255.734	93.3109
255.795	93.3011
255.958	93.2922
255.968	93.2822
255.852	93.2734
255.846	93.2644
256.005	93.2561
256.047	93.2485
255.900	93.2403
255.951	93.2327
256.046	93.2248
256.104	93.2175
256.160	93.2108
256.096	93.2030
256.128	93.1971
256.091	93.1901
256.115	93.1847
255.871	93.1790
255.888	93.1725
255.957	93.1666
256.085	93.1606
256.033	93.1553
255.991	93.1505
256.014	93.1443
256.016	93.1391
256.070	93.1344
256.050	93.1293
256.098	93.1242
255.958	93.1192
255.872	93.1139
255.931	93.1092
255.916	93.1039
255.882	93.0994
255.914	93.0946
255.911	93.0903
255.885	93.0862
255.818	93.0816
255.856	93.0777
256.104	93.0735
256.088	93.0689
255.833	93.0651
255.960	93.0605
256.027	93.0570
256.122	93.0527
256.159	93.0491
256.187	93.0452
256.178	93.0416
256.124	93.0370
256.160	93.0336
256.174	93.0303
256.106	93.0263
256.113	93.0239
256.157	93.0200
256.156	93.0171
256.138	93.0130
256.157	93.0093
256.164	93.0064
256.191	93.0026
256.140	92.9996
256.119	92.9968
256.174	92.9933
256.107	92.9908
256.106	92.9880
256.146	92.9854
256.135	92.9821
256.105	92.9795
256.090	92.9764
256.091	92.9731
256.075	92.9704
256.023	92.9674
255.941	92.9641
255.965	92.9616
256.033	92.9583
256.145	92.9561
256.107	92.9528
256.124	92.9497
256.111	92.9474
256.120	92.9442
256.097	92.9418
256.070	92.9388
256.089	92.9359
256.039	92.9334
256.082	92.9306
256.087	92.9285
256.090	92.9264
256.118	92.9234
256.108	92.9214
256.128	92.9183
256.118	92.9160
256.123	92.9130
256.125	92.9104
256.106	92.9086
256.141	92.9061
256.126	92.9038
255.994	92.9012
255.925	92.8991
255.970	92.8970
255.929	92.8943
255.913	92.8922
256.005	92.8902