File: data_plotting/tga/Ag2_8_31_16_%vtime.txt
Filename:	D:\Users\Thermal_Users\LeBlanc\Ag2_8_31_16.tg1d

Time (min)	Weight % (%)
0.000	99.9922
0.267	99.9993
0.533	99.9949
0.800	100.0024
1.067	99.9906
1.333	100.0195
1.600	99.9871
1.867	99.9167
2.133	99.8028
2.400	99.7067
2.667	99.5948
2.933	99.4925
3.200	99.4077
3.467	99.3208
3.733	99.2363
4.000	99.1951
4.267	99.1301
4.533	99.0142
4.800	98.9374
5.067	98.8518
5.333	98.7655
5.600	98.7137
5.867	98.6626
6.133	98.5875
6.400	98.5275
6.667	98.4591
6.933	98.3957
7.200	98.3474
7.467	98.2825
7.733	98.2368
8.000	98.1729
8.267	98.1303
8.533	98.0812
8.800	98.0486
9.067	97.9889
9.333	97.9401
9.600	97.8962
9.867	97.8501
10.133	97.7955
10.400	97.7609
10.667	97.7233
10.933	97.6680
11.200	97.6390
11.467	97.6058
11.733	97.5596
12.000	97.5309
12.267	97.5001
12.533	97.4604
12.800	97.4320
13.067	97.3920
13.333	97.3724
13.600	97.3399
13.867	97.3189
14.133	97.2717
14.400	97.2644
14.667	97.2230
14.933	97.2036
15.200	97.1657
15.467	97.1508
15.733	97.1077
16.000	97.0881
16.267	97.0644
16.533	97.0398
16.800	97.0315
17.067	97.0085
17.333	96.9299
17.600	96.7982
17.867	96.5550
18.133	96.3057
18.400	96.0907
18.667	95.9265
18.933	95.8021
19.200	95.6721
19.467	95.5759
19.733	95.4892
20.000	95.3932
20.267	95.3334
20.533	95.2502
20.800	95.1939
21.067	95.1234
21.333	95.0697
21.600	95.0160
21.867	94.9612
22.133	94.8988
22.400	94.8544
22.667	94.8182
22.933	94.7735
23.200	94.7298
23.467	94.6841
23.733	94.6472
24.000	94.6135
24.267	94.5756
24.533	94.5435
24.800	94.5070
25.067	94.4813
25.333	94.4479
25.600	94.4129
25.867	94.3853
26.133	94.3627
26.400	94.3355
26.667	94.3119
26.933	94.2880
27.200	94.2587
27.467	94.2389
27.733	94.2152
28.000	94.1940
28.267	94.1739
28.533	94.1567
28.800	94.1353
29.067	94.1146
29.333	94.0960
29.600	94.0777
29.867	94.0622
30.133	94.0429
30.400	94.0286
30.667	94.0122
30.933	93.9985
31.200	93.9777
31.467	93.9604
31.733	93.9503
32.000	93.9350
32.267	93.9210
32.533	93.9043
32.800	93.8958
33.067	93.8857
33.333	93.8806
33.600	93.8629
33.867	93.8508
34.133	93.8390
34.400	93.8298
34.667	93.8215
34.933	93.8111
35.200	93.7978
35.467	93.7862
35.733	93.7758
36.000	93.7749
36.267	93.7584
36.533	93.7562
36.800	93.7475
37.067	93.7355
37.333	93.7341
37.600	93.7183
37.867	93.7182
38.133	93.7060
38.400	93.6908
38.667	93.6888
38.933	93.6826
39.200	93.6756
39.467	93.6642
39.733	93.6568
40.000	93.6542
40.267	93.6499
40.533	93.6426
40.800	93.6341
41.067	93.6339
41.333	93.6254
41.600	93.6208
41.867	93.6119
42.133	93.6079
42.400	93.6008
42.667	93.5923
42.933	93.5883
43.200	93.5824
43.467	93.5750
43.733	93.5725
44.000	93.5695
44.267	93.5614
44.533	93.5557
44.800	93.5490
45.067	93.5459
45.333	93.5431
45.600	93.5399
45.867	93.5397
46.133	93.5299
46.400	93.5220
46.667	93.5210
46.933	93.5137
47.200	93.5126
47.467	93.5061
47.733	93.5046
48.000	93.4972
48.267	93.4839
48.533	93.4668
48.800	93.4485
49.067	93.4332
49.333	93.4187
49.600	93.4044
49.867	93.3913
50.133	93.3785
50.400	93.3663
50.667	93.3541
50.933	93.3424
51.200	93.3318
51.467	93.3222
51.733	93.3109
52.000	93.3011
52.267	93.2922
52.533	93.2822
52.800	93.2734
53.067	93.2644
53.333	93.2561
53.600	93.2485
53.867	93.2403
54.133	93.2327
54.400	93.2248
54.667	93.2175
54.933	93.2108
55.200	93.2030
55.467	93.1971
55.733	93.1901
56.000	93.1847
56.267	93.1790
56.533	93.1725
56.800	93.1666
57.067	93.1606
57.333	93.1553
57.600	93.1505
57.867	93.1443
58.133	93.1391
58.400	93.1344
58.667	93.1293
58.933	93.1242
59.200	93.1192
59.467	93.1139
59.733	93.1092
60.000	93.1039
60.267	93.0994
60.533	93.0946
60.800	93.0903
61.067	93.0862
61.333	93.0816
61.600	93.0777
61.867	93.0735
62.133	93.0689
62.400	93.0651
62.667	93.0605
62.933	93.0570
63.200	93.0527
63.467	93.0491
63.733	93.0452
64.000	93.0416
64.267	93.0370
64.533	93.0336
64.800	93.0303
65.067	93.0263
65.333	93.0239
65.600	93.0200
65.867	93.0171
66.133	93.0130
66.400	93.0093
66.667	93.0064
66.933	93.0026
67.200	92.9996
67.467	92.9968
67.733	92.9933
68.000	92.9908
68.267	92.9880
68.533	92.9854
68.800	92.9821
69.067	92.9795
69.333	92.9764
69.600	92.9731
69.867	92.9704
70.133	92.9674
70.400	92.9641
70.667	92.9616
70.933	92.9583
71.200	92.9561
71.467	92.9528
71.733	92.9497
72.000	92.9474
72.267	92.9442
72.533	92.9418
72.800	92.9388
73.067	92.9359
73.333	92.9334
73.600	92.9306
73.867	92.9285
74.133	92.9264
74.400	92.9234
74.667	92.9214
74.933	92.9183
75.200	92.9160
75.467	92.9130
75.733	92.9104
76.000	92.9086
76.267	92.9061
76.533	92.9038
76.800	92.9012
77.067	92.8991
77.333	92.8970
77.600	92.8943
77.867	92.8922
78.100	92.8902