File: data_plotting/tga/Cu ink 8_10_16.txt
Filename:	D:\Users\Thermal_Users\LeBlanc\Cu ink 8-10-16.tg1d

Time (min)	Weight (mg)
0.000	67.4989
0.317	67.5015
0.633	67.4964
0.950	67.4926
1.267	67.5052
1.583	67.4271
1.900	67.3272
2.217	66.8253
2.533	64.2995
2.850	63.4313
3.167	63.0572
3.483	63.0775
3.800	63.1083
4.117	63.2404
4.433	63.3802
4.750	63.4967
5.067	63.5526
5.383	63.6925
5.700	63.8693
6.017	63.9985
6.333	64.1384
6.650	64.3028
6.967	64.4909
7.283	64.6020
7.600	64.7627
7.917	64.9035
8.233	65.0484
8.550	65.1937
8.867	65.3477
9.183	65.5045
9.500	65.6964
9.817	65.7466
10.133	65.9351
10.450	66.1138
10.767	66.2321
11.083	66.3449
11.400	66.5129
11.717	66.6327
12.033	66.7699
12.350	66.8383
12.667	66.9614
12.983	67.1190
13.300	67.2292
13.617	67.3464
13.933	67.4626
14.250	67.5551
14.567	67.6735
14.883	67.7698
15.200	67.8768
15.517	68.0029
15.833	68.0968
16.150	68.2041
16.467	68.3314
16.783	68.4308
17.100	68.5345
17.417	68.5974
17.733	68.7028
18.050	68.7889
18.367	68.8841
18.683	68.9605
19.000	68.9694
19.317	69.0042
19.633	69.0721
19.950	69.0148
20.267	69.1836
20.583	69.2131
20.900	69.2564
21.217	69.3856
21.533	69.4719
21.850	69.6853
22.167	69.7312
22.483	69.7929
22.800	69.8255
23.117	69.8581
23.433	69.8877
23.750	69.9160
24.067	69.9656
24.383	69.9978
24.700	70.0573
25.017	70.1182
25.333	70.1390
25.650	70.1678
25.967	70.0869
26.283	70.0744
26.600	70.2031
26.917	70.2478
27.233	70.2812
27.550	70.3150
27.867	70.3079
28.183	70.3387
28.500	70.3621
28.817	70.3423
29.133	70.2091
29.450	70.2418
29.767	70.2777
30.083	70.2946
30.400	70.2784
30.717	70.2839
31.033	70.3035
31.350	70.2848
31.667	70.3035
31.983	70.2978
32.300	70.2848
32.617	70.2686
32.933	70.2698
33.250	70.2745
33.567	70.2775
33.883	70.2629
34.200	70.2651
34.517	70.2380
34.833	70.2800
35.150	70.3236
35.467	70.3195
35.783	70.3304
36.100	70.3466
36.417	70.3486
36.733	70.3457
37.050	70.3527
37.367	70.3518
37.683	70.3364
38.000	70.3464
38.317	70.3303
38.633	70.2892
38.950	70.2835
39.267	70.3653
39.583	70.3415
39.900	70.3011
40.217	70.4186
40.533	70.4838
40.850	70.4196
41.167	70.3748
41.483	70.3626
41.800	70.3870
42.117	70.3915
42.433	70.3950
42.750	70.4445
43.067	70.3801
43.383	70.3715
43.700	70.3598
44.017	70.3476
44.333	70.4140
44.650	70.4261
44.967	70.4370
45.283	70.4135
45.600	70.3799
45.917	70.3841
46.233	70.3759
46.550	70.4059
46.867	70.3862
47.183	70.3905
47.500	70.3979
47.817	70.3824
48.133	70.3832
48.450	70.3904
48.767	70.4012
49.083	70.4334
49.400	70.4160
49.717	70.3983
50.033	70.3670
50.350	70.3932
50.667	70.4006
50.983	70.4049
51.300	70.4277
51.617	70.4735
51.933	70.5080
52.250	70.2976
52.567	70.5205
52.883	70.4827
53.200	70.4883
53.517	70.4788
53.833	70.4513
54.150	70.4307
54.467	70.4512
54.783	70.4891
55.100	70.5125
55.417	70.4685
55.733	70.4597
56.050	70.4516
56.367	70.4791
56.683	70.4815
57.000	70.4876
57.317	70.4851
57.633	70.4719
57.950	70.4796
58.267	70.5146
58.583	70.5245
58.900	70.5314
59.217	70.5322
59.533	70.5383
59.850	70.5128
60.167	70.5378
60.483	70.5616
60.800	70.5821
61.117	70.5770
61.433	70.5776
61.750	70.6392
62.067	70.5974
62.383	70.5784
62.700	70.5961
63.017	70.6409
63.333	70.7399
63.650	70.5870
63.967	70.6005
64.283	70.6023
64.600	70.5825
64.917	70.5996
65.233	70.6472
65.550	70.6346
65.867	70.6056
66.183	70.6047
66.500	70.6226
66.817	70.6326
67.133	70.6405
67.450	70.5931
67.767	70.5652
68.083	70.5434
68.400	70.5307
68.717	70.5157
69.033	70.5072
69.350	70.5358
69.667	70.5513
69.983	70.5355
70.300	70.5311
70.617	70.5525
70.933	70.5611
71.250	70.5473
71.567	70.5614
71.883	70.5444
72.200	70.5338
72.517	70.5666
72.833	70.5809
73.150	70.5835
73.467	70.5530
73.783	70.5398
74.100	70.5457
74.417	70.5442
74.733	70.5469
75.050	70.5279
75.367	70.5059
75.683	70.5076
76.000	70.5251
76.317	70.5320
76.633	70.5488
76.950	70.5473
77.267	70.5235
77.583	70.5342
77.900	70.5269
78.217	70.5372
78.533	70.5232
78.850	70.5179
79.167	70.5417
79.483	70.5226
79.800	70.5201
80.117	70.5220
80.433	70.5111
80.750	70.4997
81.067	70.4916
81.383	70.6638
81.700	70.5139
82.017	70.5219
82.333	70.5537
82.650	70.5402
82.967	70.5607
83.283	70.5378
83.600	70.5473
83.917	70.5287
84.233	70.5272
84.550	70.5010
84.867	70.4884
85.183	70.5077
85.500	70.5094
85.817	70.5092
86.133	70.5220
86.450	70.5185
86.767	70.5282
87.083	70.5269
87.400	70.5492
87.717	70.5413
88.033	70.5400
88.350	70.5403
88.667	70.5490
88.983	70.5606
89.300	70.5616
89.617	70.5752
89.933	70.5814
90.250	70.5890
90.567	70.7241
90.883	70.5624
91.200	70.5437
91.517	70.5584
91.833	70.5579
92.150	70.5620
92.467	70.5766
92.783	70.6507
92.850	70.7278