File: data_plotting/tga/Cu_ink_8_8_16.txt
Filename:	D:\Users\Thermal_Users\LeBlanc\Cu ink 8_8_16.tg1d

Time (min)	Weight % (%)
0.000	100.0101
0.150	100.0176
0.300	100.0070
0.450	99.9979
0.600	99.9909
0.750	99.9874
0.900	99.9821
1.050	99.9796
1.200	99.9806
1.350	99.9822
1.500	100.0581
1.650	99.9837
1.800	99.8742
1.950	99.7477
2.100	99.6356
2.250	99.5605
2.400	99.5232
2.550	99.5238
2.700	99.5542
2.850	99.6053
3.000	99.6687
3.150	99.7370
3.300	99.8094
3.450	99.8798
3.600	99.9502
3.750	100.0172
3.900	100.0875
4.050	100.1558
4.200	100.2253
4.350	100.2941
4.500	100.3632
4.650	100.4324
4.800	100.5022
4.950	100.5665
5.100	100.6323
5.250	100.6943
5.400	100.7529
5.550	100.8079
5.700	100.8583
5.850	100.9040
6.000	100.9472
6.150	100.9841
6.300	101.0157
6.450	101.0443
6.600	101.0688
6.750	101.0865
6.900	101.1011
7.050	101.1096
7.200	101.1161
7.350	101.1179
7.500	101.1167
7.650	101.1126
7.800	101.1009
7.950	101.0904
8.100	101.0765
8.250	101.0596
8.400	101.0406
8.550	101.0180
8.700	100.9963
8.850	100.9704
9.000	100.9462
9.150	100.9208
9.300	100.8952
9.450	100.8715
9.600	100.8467
9.750	100.8223
9.900	100.7958
10.050	100.7708
10.200	100.7453
10.350	100.7241
10.500	100.7050
10.650	100.6882
10.800	100.6738
10.950	100.6566
11.100	100.6390
11.250	100.6184
11.400	100.5971
11.550	100.5709
11.700	100.5437
11.850	100.5134
12.000	100.4798
12.150	100.4450
12.300	100.4071
12.450	100.3682
12.600	100.3290
12.750	100.2905
12.900	100.2527
13.050	100.2167
13.200	100.1816
13.350	100.1499
13.500	100.1183
13.650	100.0867
13.800	100.0561
13.950	100.0254
14.100	99.9943
14.250	99.9622
14.400	99.9294
14.550	99.8951
14.700	99.8607
14.850	99.8249
15.000	99.7861
15.150	99.7485
15.300	99.7085
15.450	99.6666
15.600	99.6270
15.750	99.5848
15.900	99.5458
16.050	99.5097
16.200	99.4728
16.350	99.4398
16.500	99.4099
16.650	99.3837
16.800	99.3605
16.950	99.3404
17.100	99.3227
17.250	99.3100
17.400	99.2971
17.550	99.2888
17.700	99.2789
17.850	99.2734
18.000	99.2696
18.150	99.2675
18.300	99.2663
18.450	99.2686
18.600	99.2722
18.750	99.2773
18.900	99.2852
19.050	99.2918
19.200	99.3003
19.350	99.3109
19.500	99.3209
19.650	99.3311
19.800	99.3425
19.950	99.3525
20.100	99.3641
20.250	99.3740
20.400	99.3839
20.550	99.3950
20.700	99.4005
20.850	99.4100
21.000	99.4176
21.150	99.4261
21.300	99.4322
21.450	99.4384
21.600	99.4442
21.750	99.4491
21.900	99.4537
22.050	99.4581
22.200	99.4638
22.350	99.4678
22.500	99.4717
22.650	99.4763
22.800	99.4802
22.950	99.4841
23.100	99.4874
23.250	99.4914
23.400	99.4966
23.550	99.4998
23.700	99.5048
23.850	99.5090
24.000	99.5143
24.150	99.5183
24.300	99.5229
24.450	99.5284
24.600	99.5340
24.750	99.5381
24.900	99.5440
25.050	99.5493
25.200	99.5564
25.350	99.5632
25.500	99.5688
25.650	99.5763
25.800	99.5825
25.950	99.5905
26.100	99.5976
26.250	99.6057
26.400	99.6134
26.550	99.6216
26.700	99.6296
26.850	99.6386
27.000	99.6472
27.150	99.6568
27.300	99.6658
27.450	99.6765
27.600	99.6859
27.750	99.6963
27.900	99.7070
28.050	99.7179
28.200	99.7277
28.350	99.7393
28.500	99.7504
28.650	99.7618
28.800	99.7711
28.950	99.7854
29.100	99.7951
29.250	99.8077
29.400	99.8183
29.550	99.8315
29.700	99.8424
29.850	99.8551
30.000	99.8666
30.150	99.8781
30.300	99.8907
30.450	99.9025
30.600	99.9139
30.750	99.9245
30.900	99.9348
31.050	99.9469
31.200	99.9579
31.350	99.9682
31.500	99.9767
31.650	99.9897
31.800	99.9985
31.950	100.0107
32.100	100.0180
32.250	100.0299
32.400	100.0381
32.550	100.0478
32.700	100.0578
32.850	100.0666
33.000	100.0760
33.150	100.0855
33.300	100.0939
33.450	100.1049
33.600	100.1122
33.750	100.1215
33.900	100.1302
34.050	100.1389
34.200	100.1486
34.350	100.1557
34.500	100.1634
34.650	100.1723
34.800	100.1806
34.950	100.1900
35.100	100.1968
35.250	100.2054
35.400	100.2137
35.550	100.2226
35.700	100.2306
35.850	100.2388
36.000	100.2474
36.150	100.2543
36.300	100.2619
36.450	100.2718
36.600	100.2787
36.750	100.2849
36.900	100.2946
37.050	100.3011
37.200	100.3090
37.350	100.3164
37.500	100.3227
37.650	100.3311
37.800	100.3375
37.950	100.3463
38.100	100.3523
38.250	100.3612
38.400	100.3679
38.550	100.3750
38.700	100.3822
38.850	100.3891
39.000	100.3971
39.150	100.4045
39.300	100.4122
39.450	100.4183
39.600	100.4258
39.750	100.4327
39.900	100.4398
40.050	100.4469
40.200	100.4538
40.350	100.4593
40.500	100.4668
40.650	100.4743
40.800	100.4807
40.950	100.4876
41.100	100.4943
41.250	100.5009
41.400	100.5068
41.550	100.5140
41.700	100.5191
41.850	100.5276
42.000	100.5313
42.150	100.5388
42.300	100.5441
42.450	100.5523
42.600	100.5574
42.750	100.5639
42.900	100.5704
43.050	100.5770
43.200	100.5819
43.350	100.5885
43.500	100.5949
43.650	100.6025
43.800	100.6077
43.950	100.6141
44.100	100.6198
44.250	100.6255
44.400	100.6319
44.500	100.6363